# E (eV)  dos(E)    pdos(E)
  -3.634  0.454E-04  0.454E-04
  -3.624  0.709E-04  0.709E-04
  -3.614  0.110E-03  0.109E-03
  -3.604  0.167E-03  0.167E-03
  -3.594  0.253E-03  0.253E-03
  -3.584  0.379E-03  0.379E-03
  -3.574  0.562E-03  0.562E-03
  -3.564  0.824E-03  0.823E-03
  -3.554  0.119E-02  0.119E-02
  -3.544  0.172E-02  0.171E-02
  -3.534  0.244E-02  0.244E-02
  -3.524  0.343E-02  0.342E-02
  -3.514  0.476E-02  0.476E-02
  -3.504  0.656E-02  0.656E-02
  -3.494  0.894E-02  0.893E-02
  -3.484  0.121E-01  0.120E-01
  -3.474  0.161E-01  0.161E-01
  -3.464  0.213E-01  0.212E-01
  -3.454  0.278E-01  0.278E-01
  -3.444  0.360E-01  0.359E-01
  -3.434  0.461E-01  0.460E-01
  -3.424  0.584E-01  0.584E-01
  -3.414  0.733E-01  0.733E-01
  -3.404  0.911E-01  0.910E-01
  -3.394  0.112E+00  0.112E+00
  -3.384  0.136E+00  0.136E+00
  -3.374  0.165E+00  0.164E+00
  -3.364  0.196E+00  0.196E+00
  -3.354  0.232E+00  0.232E+00
  -3.344  0.272E+00  0.272E+00
  -3.334  0.315E+00  0.315E+00
  -3.324  0.362E+00  0.362E+00
  -3.314  0.412E+00  0.412E+00
  -3.304  0.464E+00  0.464E+00
  -3.294  0.518E+00  0.518E+00
  -3.284  0.574E+00  0.573E+00
  -3.274  0.629E+00  0.629E+00
  -3.264  0.684E+00  0.683E+00
  -3.254  0.737E+00  0.736E+00
  -3.244  0.787E+00  0.786E+00
  -3.234  0.834E+00  0.833E+00
  -3.224  0.876E+00  0.876E+00
  -3.214  0.913E+00  0.913E+00
  -3.204  0.945E+00  0.945E+00
  -3.194  0.971E+00  0.970E+00
  -3.184  0.990E+00  0.990E+00
  -3.174  0.100E+01  0.100E+01
  -3.164  0.101E+01  0.101E+01
  -3.154  0.101E+01  0.101E+01
  -3.144  0.101E+01  0.101E+01
  -3.134  0.998E+00  0.997E+00
  -3.124  0.984E+00  0.984E+00
  -3.114  0.967E+00  0.966E+00
  -3.104  0.946E+00  0.946E+00
  -3.094  0.923E+00  0.923E+00
  -3.084  0.899E+00  0.898E+00
  -3.074  0.873E+00  0.873E+00
  -3.064  0.847E+00  0.847E+00
  -3.054  0.821E+00  0.820E+00
  -3.044  0.795E+00  0.795E+00
  -3.034  0.770E+00  0.769E+00
  -3.024  0.746E+00  0.745E+00
  -3.014  0.723E+00  0.722E+00
  -3.004  0.701E+00  0.700E+00
  -2.994  0.680E+00  0.680E+00
  -2.984  0.661E+00  0.660E+00
  -2.974  0.643E+00  0.642E+00
  -2.964  0.626E+00  0.625E+00
  -2.954  0.610E+00  0.610E+00
  -2.944  0.596E+00  0.595E+00
  -2.934  0.582E+00  0.582E+00
  -2.924  0.570E+00  0.569E+00
  -2.914  0.558E+00  0.558E+00
  -2.904  0.547E+00  0.547E+00
  -2.894  0.537E+00  0.537E+00
  -2.884  0.528E+00  0.528E+00
  -2.874  0.519E+00  0.519E+00
  -2.864  0.511E+00  0.511E+00
  -2.854  0.503E+00  0.503E+00
  -2.844  0.496E+00  0.495E+00
  -2.834  0.489E+00  0.488E+00
  -2.824  0.482E+00  0.481E+00
  -2.814  0.475E+00  0.475E+00
  -2.804  0.468E+00  0.468E+00
  -2.794  0.462E+00  0.462E+00
  -2.784  0.456E+00  0.456E+00
  -2.774  0.450E+00  0.450E+00
  -2.764  0.445E+00  0.444E+00
  -2.754  0.439E+00  0.439E+00
  -2.744  0.434E+00  0.434E+00
  -2.734  0.429E+00  0.429E+00
  -2.724  0.425E+00  0.425E+00
  -2.714  0.421E+00  0.420E+00
  -2.704  0.417E+00  0.417E+00
  -2.694  0.413E+00  0.413E+00
  -2.684  0.410E+00  0.409E+00
  -2.674  0.406E+00  0.406E+00
  -2.664  0.403E+00  0.403E+00
  -2.654  0.400E+00  0.400E+00
  -2.644  0.397E+00  0.397E+00
  -2.634  0.394E+00  0.393E+00
  -2.624  0.390E+00  0.390E+00
  -2.614  0.387E+00  0.387E+00
  -2.604  0.383E+00  0.383E+00
  -2.594  0.379E+00  0.379E+00
  -2.584  0.375E+00  0.375E+00
  -2.574  0.371E+00  0.371E+00
  -2.564  0.368E+00  0.367E+00
  -2.554  0.364E+00  0.363E+00
  -2.544  0.360E+00  0.360E+00
  -2.534  0.357E+00  0.357E+00
  -2.524  0.354E+00  0.353E+00
  -2.514  0.351E+00  0.351E+00
  -2.504  0.349E+00  0.349E+00
  -2.494  0.347E+00  0.347E+00
  -2.484  0.345E+00  0.345E+00
  -2.474  0.344E+00  0.344E+00
  -2.464  0.343E+00  0.343E+00
  -2.454  0.342E+00  0.342E+00
  -2.444  0.342E+00  0.341E+00
  -2.434  0.341E+00  0.341E+00
  -2.424  0.340E+00  0.340E+00
  -2.414  0.339E+00  0.338E+00
  -2.404  0.337E+00  0.337E+00
  -2.394  0.335E+00  0.335E+00
  -2.384  0.333E+00  0.333E+00
  -2.374  0.330E+00  0.330E+00
  -2.364  0.327E+00  0.327E+00
  -2.354  0.324E+00  0.323E+00
  -2.344  0.320E+00  0.320E+00
  -2.334  0.316E+00  0.316E+00
  -2.324  0.313E+00  0.312E+00
  -2.314  0.309E+00  0.309E+00
  -2.304  0.306E+00  0.305E+00
  -2.294  0.302E+00  0.302E+00
  -2.284  0.300E+00  0.300E+00
  -2.274  0.298E+00  0.297E+00
  -2.264  0.296E+00  0.296E+00
  -2.254  0.295E+00  0.295E+00
  -2.244  0.294E+00  0.294E+00
  -2.234  0.294E+00  0.294E+00
  -2.224  0.294E+00  0.294E+00
  -2.214  0.295E+00  0.295E+00
  -2.204  0.296E+00  0.296E+00
  -2.194  0.297E+00  0.297E+00
  -2.184  0.298E+00  0.298E+00
  -2.174  0.299E+00  0.299E+00
  -2.164  0.300E+00  0.300E+00
  -2.154  0.301E+00  0.300E+00
  -2.144  0.300E+00  0.300E+00
  -2.134  0.300E+00  0.300E+00
  -2.124  0.298E+00  0.298E+00
  -2.114  0.297E+00  0.296E+00
  -2.104  0.294E+00  0.294E+00
  -2.094  0.291E+00  0.290E+00
  -2.084  0.287E+00  0.287E+00
  -2.074  0.283E+00  0.282E+00
  -2.064  0.278E+00  0.278E+00
  -2.054  0.273E+00  0.273E+00
  -2.044  0.268E+00  0.268E+00
  -2.034  0.264E+00  0.264E+00
  -2.024  0.259E+00  0.259E+00
  -2.014  0.256E+00  0.255E+00
  -2.004  0.253E+00  0.252E+00
  -1.994  0.250E+00  0.250E+00
  -1.984  0.249E+00  0.249E+00
  -1.974  0.248E+00  0.248E+00
  -1.964  0.249E+00  0.249E+00
  -1.954  0.251E+00  0.250E+00
  -1.944  0.253E+00  0.253E+00
  -1.934  0.256E+00  0.256E+00
  -1.924  0.260E+00  0.260E+00
  -1.914  0.264E+00  0.264E+00
  -1.904  0.269E+00  0.268E+00
  -1.894  0.273E+00  0.273E+00
  -1.884  0.277E+00  0.276E+00
  -1.874  0.280E+00  0.279E+00
  -1.864  0.282E+00  0.282E+00
  -1.854  0.283E+00  0.283E+00
  -1.844  0.283E+00  0.283E+00
  -1.834  0.282E+00  0.281E+00
  -1.824  0.279E+00  0.278E+00
  -1.814  0.275E+00  0.274E+00
  -1.804  0.269E+00  0.269E+00
  -1.794  0.263E+00  0.263E+00
  -1.784  0.256E+00  0.256E+00
  -1.774  0.248E+00  0.248E+00
  -1.764  0.240E+00  0.240E+00
  -1.754  0.233E+00  0.233E+00
  -1.744  0.226E+00  0.225E+00
  -1.734  0.219E+00  0.219E+00
  -1.724  0.214E+00  0.214E+00
  -1.714  0.210E+00  0.210E+00
  -1.704  0.208E+00  0.207E+00
  -1.694  0.207E+00  0.206E+00
  -1.684  0.207E+00  0.207E+00
  -1.674  0.210E+00  0.209E+00
  -1.664  0.213E+00  0.213E+00
  -1.654  0.219E+00  0.218E+00
  -1.644  0.225E+00  0.224E+00
  -1.634  0.232E+00  0.231E+00
  -1.624  0.239E+00  0.239E+00
  -1.614  0.246E+00  0.246E+00
  -1.604  0.253E+00  0.253E+00
  -1.594  0.259E+00  0.259E+00
  -1.584  0.264E+00  0.264E+00
  -1.574  0.268E+00  0.268E+00
  -1.564  0.271E+00  0.270E+00
  -1.554  0.271E+00  0.271E+00
  -1.544  0.270E+00  0.270E+00
  -1.534  0.268E+00  0.267E+00
  -1.524  0.263E+00  0.263E+00
  -1.514  0.257E+00  0.257E+00
  -1.504  0.250E+00  0.250E+00
  -1.494  0.243E+00  0.242E+00
  -1.484  0.234E+00  0.234E+00
  -1.474  0.225E+00  0.225E+00
  -1.464  0.217E+00  0.217E+00
  -1.454  0.209E+00  0.209E+00
  -1.444  0.202E+00  0.202E+00
  -1.434  0.196E+00  0.195E+00
  -1.424  0.191E+00  0.191E+00
  -1.414  0.188E+00  0.187E+00
  -1.404  0.186E+00  0.186E+00
  -1.394  0.185E+00  0.185E+00
  -1.384  0.187E+00  0.187E+00
  -1.374  0.189E+00  0.189E+00
  -1.364  0.193E+00  0.193E+00
  -1.354  0.198E+00  0.197E+00
  -1.344  0.203E+00  0.203E+00
  -1.334  0.209E+00  0.209E+00
  -1.324  0.215E+00  0.214E+00
  -1.314  0.220E+00  0.220E+00
  -1.304  0.226E+00  0.225E+00
  -1.294  0.230E+00  0.230E+00
  -1.284  0.234E+00  0.234E+00
  -1.274  0.237E+00  0.237E+00
  -1.264  0.239E+00  0.238E+00
  -1.254  0.239E+00  0.239E+00
  -1.244  0.239E+00  0.239E+00
  -1.234  0.238E+00  0.237E+00
  -1.224  0.235E+00  0.235E+00
  -1.214  0.232E+00  0.232E+00
  -1.204  0.228E+00  0.228E+00
  -1.194  0.224E+00  0.224E+00
  -1.184  0.220E+00  0.219E+00
  -1.174  0.215E+00  0.215E+00
  -1.164  0.211E+00  0.210E+00
  -1.154  0.206E+00  0.206E+00
  -1.144  0.203E+00  0.203E+00
  -1.134  0.200E+00  0.200E+00
  -1.124  0.198E+00  0.198E+00
  -1.114  0.196E+00  0.196E+00
  -1.104  0.196E+00  0.195E+00
  -1.094  0.196E+00  0.196E+00
  -1.084  0.197E+00  0.196E+00
  -1.074  0.198E+00  0.198E+00
  -1.064  0.199E+00  0.199E+00
  -1.054  0.201E+00  0.201E+00
  -1.044  0.203E+00  0.203E+00
  -1.034  0.204E+00  0.204E+00
  -1.024  0.206E+00  0.205E+00
  -1.014  0.206E+00  0.206E+00
  -1.004  0.206E+00  0.206E+00
  -0.994  0.205E+00  0.205E+00
  -0.984  0.204E+00  0.203E+00
  -0.974  0.201E+00  0.201E+00
  -0.964  0.199E+00  0.198E+00
  -0.954  0.195E+00  0.195E+00
  -0.944  0.191E+00  0.191E+00
  -0.934  0.188E+00  0.187E+00
  -0.924  0.184E+00  0.184E+00
  -0.914  0.180E+00  0.180E+00
  -0.904  0.177E+00  0.177E+00
  -0.894  0.175E+00  0.175E+00
  -0.884  0.174E+00  0.174E+00
  -0.874  0.173E+00  0.173E+00
  -0.864  0.174E+00  0.174E+00
  -0.854  0.176E+00  0.175E+00
  -0.844  0.178E+00  0.178E+00
  -0.834  0.182E+00  0.182E+00
  -0.824  0.187E+00  0.186E+00
  -0.814  0.192E+00  0.192E+00
  -0.804  0.198E+00  0.198E+00
  -0.794  0.204E+00  0.204E+00
  -0.784  0.211E+00  0.210E+00
  -0.774  0.217E+00  0.216E+00
  -0.764  0.222E+00  0.222E+00
  -0.754  0.228E+00  0.227E+00
  -0.744  0.232E+00  0.231E+00
  -0.734  0.235E+00  0.235E+00
  -0.724  0.237E+00  0.236E+00
  -0.714  0.237E+00  0.237E+00
  -0.704  0.236E+00  0.236E+00
  -0.694  0.234E+00  0.233E+00
  -0.684  0.229E+00  0.229E+00
  -0.674  0.224E+00  0.223E+00
  -0.664  0.216E+00  0.216E+00
  -0.654  0.208E+00  0.208E+00
  -0.644  0.199E+00  0.198E+00
  -0.634  0.188E+00  0.188E+00
  -0.624  0.178E+00  0.177E+00
  -0.614  0.167E+00  0.166E+00
  -0.604  0.156E+00  0.156E+00
  -0.594  0.146E+00  0.145E+00
  -0.584  0.136E+00  0.136E+00
  -0.574  0.128E+00  0.127E+00
  -0.564  0.121E+00  0.121E+00
  -0.554  0.115E+00  0.115E+00
  -0.544  0.112E+00  0.112E+00
  -0.534  0.111E+00  0.111E+00
  -0.524  0.112E+00  0.111E+00
  -0.514  0.115E+00  0.115E+00
  -0.504  0.120E+00  0.120E+00
  -0.494  0.127E+00  0.127E+00
  -0.484  0.137E+00  0.137E+00
  -0.474  0.148E+00  0.148E+00
  -0.464  0.160E+00  0.160E+00
  -0.454  0.174E+00  0.173E+00
  -0.444  0.188E+00  0.187E+00
  -0.434  0.202E+00  0.202E+00
  -0.424  0.216E+00  0.216E+00
  -0.414  0.229E+00  0.229E+00
  -0.404  0.241E+00  0.241E+00
  -0.394  0.252E+00  0.251E+00
  -0.384  0.260E+00  0.260E+00
  -0.374  0.266E+00  0.266E+00
  -0.364  0.270E+00  0.269E+00
  -0.354  0.271E+00  0.270E+00
  -0.344  0.269E+00  0.268E+00
  -0.334  0.264E+00  0.264E+00
  -0.324  0.257E+00  0.257E+00
  -0.314  0.248E+00  0.247E+00
  -0.304  0.236E+00  0.236E+00
  -0.294  0.223E+00  0.223E+00
  -0.284  0.209E+00  0.208E+00
  -0.274  0.193E+00  0.193E+00
  -0.264  0.178E+00  0.177E+00
  -0.254  0.162E+00  0.162E+00
  -0.244  0.147E+00  0.146E+00
  -0.234  0.132E+00  0.132E+00
  -0.224  0.119E+00  0.119E+00
  -0.214  0.107E+00  0.107E+00
  -0.204  0.975E-01  0.973E-01
  -0.194  0.895E-01  0.893E-01
  -0.184  0.836E-01  0.834E-01
  -0.174  0.799E-01  0.798E-01
  -0.164  0.785E-01  0.784E-01
  -0.154  0.794E-01  0.793E-01
  -0.144  0.825E-01  0.824E-01
  -0.134  0.878E-01  0.877E-01
  -0.124  0.952E-01  0.950E-01
  -0.114  0.104E+00  0.104E+00
  -0.104  0.115E+00  0.115E+00
  -0.094  0.128E+00  0.127E+00
  -0.084  0.141E+00  0.141E+00
  -0.074  0.155E+00  0.155E+00
  -0.064  0.170E+00  0.170E+00
  -0.054  0.185E+00  0.185E+00
  -0.044  0.199E+00  0.199E+00
  -0.034  0.213E+00  0.213E+00
  -0.024  0.226E+00  0.225E+00
  -0.014  0.237E+00  0.236E+00
  -0.004  0.246E+00  0.246E+00
   0.006  0.253E+00  0.253E+00
   0.016  0.258E+00  0.258E+00
   0.026  0.261E+00  0.260E+00
   0.036  0.261E+00  0.260E+00
   0.046  0.259E+00  0.258E+00
   0.056  0.254E+00  0.253E+00
   0.066  0.247E+00  0.246E+00
   0.076  0.238E+00  0.237E+00
   0.086  0.227E+00  0.226E+00
   0.096  0.214E+00  0.214E+00
   0.106  0.201E+00  0.201E+00
   0.116  0.187E+00  0.187E+00
   0.126  0.173E+00  0.173E+00
   0.136  0.159E+00  0.159E+00
   0.146  0.146E+00  0.145E+00
   0.156  0.133E+00  0.133E+00
   0.166  0.121E+00  0.121E+00
   0.176  0.111E+00  0.111E+00
   0.186  0.103E+00  0.103E+00
   0.196  0.961E-01  0.959E-01
   0.206  0.913E-01  0.911E-01
   0.216  0.885E-01  0.883E-01
   0.226  0.876E-01  0.874E-01
   0.236  0.886E-01  0.884E-01
   0.246  0.915E-01  0.913E-01
   0.256  0.961E-01  0.959E-01
   0.266  0.102E+00  0.102E+00
   0.276  0.110E+00  0.109E+00
   0.286  0.118E+00  0.118E+00
   0.296  0.127E+00  0.127E+00
   0.306  0.137E+00  0.137E+00
   0.316  0.147E+00  0.147E+00
   0.326  0.157E+00  0.156E+00
   0.336  0.166E+00  0.166E+00
   0.346  0.175E+00  0.175E+00
   0.356  0.183E+00  0.182E+00
   0.366  0.190E+00  0.189E+00
   0.376  0.195E+00  0.195E+00
   0.386  0.199E+00  0.199E+00
   0.396  0.202E+00  0.202E+00
   0.406  0.204E+00  0.203E+00
   0.416  0.204E+00  0.204E+00
   0.426  0.203E+00  0.203E+00
   0.436  0.201E+00  0.201E+00
   0.446  0.198E+00  0.198E+00
   0.456  0.194E+00  0.194E+00
   0.466  0.190E+00  0.190E+00
   0.476  0.185E+00  0.185E+00
   0.486  0.180E+00  0.180E+00
   0.496  0.175E+00  0.175E+00
   0.506  0.170E+00  0.169E+00
   0.516  0.164E+00  0.164E+00
   0.526  0.159E+00  0.159E+00
   0.536  0.154E+00  0.154E+00
   0.546  0.150E+00  0.149E+00
   0.556  0.146E+00  0.145E+00
   0.566  0.142E+00  0.141E+00
   0.576  0.138E+00  0.138E+00
   0.586  0.135E+00  0.135E+00
   0.596  0.133E+00  0.133E+00
   0.606  0.132E+00  0.131E+00
   0.616  0.131E+00  0.131E+00
   0.626  0.131E+00  0.131E+00
   0.636  0.132E+00  0.132E+00
   0.646  0.134E+00  0.133E+00
   0.656  0.136E+00  0.136E+00
   0.666  0.140E+00  0.139E+00
   0.676  0.144E+00  0.143E+00
   0.686  0.148E+00  0.148E+00
   0.696  0.153E+00  0.153E+00
   0.706  0.158E+00  0.158E+00
   0.716  0.163E+00  0.163E+00
   0.726  0.168E+00  0.168E+00
   0.736  0.172E+00  0.172E+00
   0.746  0.176E+00  0.175E+00
   0.756  0.179E+00  0.178E+00
   0.766  0.180E+00  0.180E+00
   0.776  0.181E+00  0.180E+00
   0.786  0.180E+00  0.179E+00
   0.796  0.178E+00  0.177E+00
   0.806  0.174E+00  0.174E+00
   0.816  0.169E+00  0.169E+00
   0.826  0.164E+00  0.163E+00
   0.836  0.157E+00  0.157E+00
   0.846  0.150E+00  0.150E+00
   0.856  0.143E+00  0.142E+00
   0.866  0.135E+00  0.135E+00
   0.876  0.127E+00  0.127E+00
   0.886  0.120E+00  0.120E+00
   0.896  0.114E+00  0.113E+00
   0.906  0.108E+00  0.108E+00
   0.916  0.103E+00  0.103E+00
   0.926  0.100E+00  0.998E-01
   0.936  0.981E-01  0.978E-01
   0.946  0.975E-01  0.972E-01
   0.956  0.984E-01  0.981E-01
   0.966  0.101E+00  0.100E+00
   0.976  0.104E+00  0.104E+00
   0.986  0.109E+00  0.109E+00
   0.996  0.115E+00  0.115E+00
   1.006  0.122E+00  0.122E+00
   1.016  0.130E+00  0.129E+00
   1.026  0.138E+00  0.138E+00
   1.036  0.147E+00  0.146E+00
   1.046  0.156E+00  0.155E+00
   1.056  0.164E+00  0.164E+00
   1.066  0.173E+00  0.172E+00
   1.076  0.181E+00  0.180E+00
   1.086  0.188E+00  0.187E+00
   1.096  0.195E+00  0.194E+00
   1.106  0.200E+00  0.200E+00
   1.116  0.205E+00  0.204E+00
   1.126  0.209E+00  0.208E+00
   1.136  0.211E+00  0.210E+00
   1.146  0.213E+00  0.212E+00
   1.156  0.213E+00  0.212E+00
   1.166  0.212E+00  0.211E+00
   1.176  0.209E+00  0.209E+00
   1.186  0.206E+00  0.205E+00
   1.196  0.201E+00  0.201E+00
   1.206  0.196E+00  0.195E+00
   1.216  0.189E+00  0.189E+00
   1.226  0.182E+00  0.181E+00
   1.236  0.173E+00  0.173E+00
   1.246  0.165E+00  0.164E+00
   1.256  0.155E+00  0.155E+00
   1.266  0.145E+00  0.145E+00
   1.276  0.135E+00  0.135E+00
   1.286  0.125E+00  0.125E+00
   1.296  0.115E+00  0.115E+00
   1.306  0.105E+00  0.105E+00
   1.316  0.958E-01  0.954E-01
   1.326  0.870E-01  0.867E-01
   1.336  0.791E-01  0.788E-01
   1.346  0.720E-01  0.718E-01
   1.356  0.660E-01  0.658E-01
   1.366  0.612E-01  0.610E-01
   1.376  0.577E-01  0.575E-01
   1.386  0.555E-01  0.553E-01
   1.396  0.549E-01  0.546E-01
   1.406  0.557E-01  0.554E-01
   1.416  0.580E-01  0.578E-01
   1.426  0.619E-01  0.616E-01
   1.436  0.673E-01  0.670E-01
   1.446  0.742E-01  0.738E-01
   1.456  0.824E-01  0.820E-01
   1.466  0.919E-01  0.915E-01
   1.476  0.103E+00  0.102E+00
   1.486  0.114E+00  0.114E+00
   1.496  0.126E+00  0.126E+00
   1.506  0.139E+00  0.139E+00
   1.516  0.152E+00  0.152E+00
   1.526  0.166E+00  0.165E+00
   1.536  0.178E+00  0.177E+00
   1.546  0.191E+00  0.190E+00
   1.556  0.202E+00  0.201E+00
   1.566  0.212E+00  0.211E+00
   1.576  0.221E+00  0.220E+00
   1.586  0.229E+00  0.228E+00
   1.596  0.234E+00  0.233E+00
   1.606  0.238E+00  0.237E+00
   1.616  0.240E+00  0.239E+00
   1.626  0.240E+00  0.239E+00
   1.636  0.238E+00  0.237E+00
   1.646  0.235E+00  0.233E+00
   1.656  0.229E+00  0.228E+00
   1.666  0.222E+00  0.221E+00
   1.676  0.213E+00  0.212E+00
   1.686  0.203E+00  0.203E+00
   1.696  0.193E+00  0.192E+00
   1.706  0.181E+00  0.180E+00
   1.716  0.169E+00  0.168E+00
   1.726  0.156E+00  0.155E+00
   1.736  0.144E+00  0.143E+00
   1.746  0.131E+00  0.131E+00
   1.756  0.119E+00  0.119E+00
   1.766  0.108E+00  0.107E+00
   1.776  0.972E-01  0.968E-01
   1.786  0.875E-01  0.871E-01
   1.796  0.789E-01  0.786E-01
   1.806  0.715E-01  0.711E-01
   1.816  0.653E-01  0.650E-01
   1.826  0.604E-01  0.601E-01
   1.836  0.568E-01  0.565E-01
   1.846  0.546E-01  0.543E-01
   1.856  0.536E-01  0.534E-01
   1.866  0.540E-01  0.537E-01
   1.876  0.555E-01  0.552E-01
   1.886  0.581E-01  0.577E-01
   1.896  0.617E-01  0.613E-01
   1.906  0.661E-01  0.657E-01
   1.916  0.713E-01  0.709E-01
   1.926  0.772E-01  0.767E-01
   1.936  0.835E-01  0.830E-01
   1.946  0.902E-01  0.897E-01
   1.956  0.972E-01  0.966E-01
   1.966  0.104E+00  0.104E+00
   1.976  0.112E+00  0.111E+00
   1.986  0.119E+00  0.118E+00
   1.996  0.126E+00  0.125E+00
   2.006  0.133E+00  0.132E+00
   2.016  0.140E+00  0.139E+00
   2.026  0.147E+00  0.146E+00
   2.036  0.154E+00  0.153E+00
   2.046  0.161E+00  0.160E+00
   2.056  0.167E+00  0.166E+00
   2.066  0.174E+00  0.173E+00
   2.076  0.180E+00  0.179E+00
   2.086  0.186E+00  0.185E+00
   2.096  0.191E+00  0.190E+00
   2.106  0.196E+00  0.194E+00
   2.116  0.200E+00  0.198E+00
   2.126  0.203E+00  0.202E+00
   2.136  0.205E+00  0.204E+00
   2.146  0.206E+00  0.204E+00
   2.156  0.205E+00  0.204E+00
   2.166  0.204E+00  0.202E+00
   2.176  0.200E+00  0.199E+00
   2.186  0.196E+00  0.195E+00
   2.196  0.190E+00  0.189E+00
   2.206  0.183E+00  0.182E+00
   2.216  0.175E+00  0.174E+00
   2.226  0.167E+00  0.166E+00
   2.236  0.157E+00  0.157E+00
   2.246  0.148E+00  0.147E+00
   2.256  0.138E+00  0.137E+00
   2.266  0.129E+00  0.128E+00
   2.276  0.120E+00  0.119E+00
   2.286  0.111E+00  0.111E+00
   2.296  0.104E+00  0.103E+00
   2.306  0.978E-01  0.972E-01
   2.316  0.927E-01  0.921E-01
   2.326  0.888E-01  0.882E-01
   2.336  0.861E-01  0.855E-01
   2.346  0.845E-01  0.839E-01
   2.356  0.841E-01  0.835E-01
   2.366  0.847E-01  0.841E-01
   2.376  0.861E-01  0.854E-01
   2.386  0.881E-01  0.875E-01
   2.396  0.906E-01  0.900E-01
   2.406  0.935E-01  0.928E-01
   2.416  0.964E-01  0.957E-01
   2.426  0.994E-01  0.986E-01
   2.436  0.102E+00  0.101E+00
   2.446  0.105E+00  0.104E+00
   2.456  0.107E+00  0.106E+00
   2.466  0.109E+00  0.108E+00
   2.476  0.110E+00  0.109E+00
   2.486  0.111E+00  0.111E+00
   2.496  0.112E+00  0.112E+00
   2.506  0.113E+00  0.112E+00
   2.516  0.114E+00  0.113E+00
   2.526  0.115E+00  0.114E+00
   2.536  0.115E+00  0.115E+00
   2.546  0.116E+00  0.115E+00
   2.556  0.117E+00  0.117E+00
   2.566  0.119E+00  0.118E+00
   2.576  0.120E+00  0.120E+00
   2.586  0.122E+00  0.121E+00
   2.596  0.124E+00  0.123E+00
   2.606  0.127E+00  0.126E+00
   2.616  0.129E+00  0.128E+00
   2.626  0.131E+00  0.131E+00
   2.636  0.134E+00  0.133E+00
   2.646  0.136E+00  0.135E+00
   2.656  0.139E+00  0.138E+00
   2.666  0.141E+00  0.140E+00
   2.676  0.143E+00  0.142E+00
   2.686  0.145E+00  0.144E+00
   2.696  0.147E+00  0.146E+00
   2.706  0.149E+00  0.148E+00
   2.716  0.150E+00  0.149E+00
   2.726  0.152E+00  0.151E+00
   2.736  0.153E+00  0.152E+00
   2.746  0.154E+00  0.153E+00
   2.756  0.155E+00  0.153E+00
   2.766  0.155E+00  0.154E+00
   2.776  0.156E+00  0.155E+00
   2.786  0.156E+00  0.155E+00
   2.796  0.156E+00  0.155E+00
