#  E (eV)   dos(E)     Int dos(E) EFermi =    7.942 eV
 -10.000  0.6886E-85  0.6886E-87
  -9.990  0.6886E-85  0.1377E-86
  -9.980  0.6886E-85  0.2066E-86
  -9.970  0.6886E-85  0.2755E-86
  -9.960  0.6886E-85  0.3443E-86
  -9.950  0.6886E-85  0.4132E-86
  -9.940  0.6886E-85  0.4820E-86
  -9.930  0.6886E-85  0.5509E-86
  -9.920  0.6886E-85  0.6198E-86
  -9.910  0.6886E-85  0.6886E-86
  -9.900  0.6886E-85  0.7575E-86
  -9.890  0.6886E-85  0.8264E-86
  -9.880  0.6886E-85  0.8952E-86
  -9.870  0.6886E-85  0.9641E-86
  -9.860  0.6886E-85  0.1033E-85
  -9.850  0.6886E-85  0.1102E-85
  -9.840  0.6886E-85  0.1171E-85
  -9.830  0.6886E-85  0.1240E-85
  -9.820  0.6886E-85  0.1308E-85
  -9.810  0.6886E-85  0.1377E-85
  -9.800  0.6886E-85  0.1446E-85
  -9.790  0.6886E-85  0.1515E-85
  -9.780  0.6886E-85  0.1584E-85
  -9.770  0.6886E-85  0.1653E-85
  -9.760  0.6886E-85  0.1722E-85
  -9.750  0.6886E-85  0.1790E-85
  -9.740  0.6886E-85  0.1859E-85
  -9.730  0.6886E-85  0.1928E-85
  -9.720  0.6886E-85  0.1997E-85
  -9.710  0.6886E-85  0.2066E-85
  -9.700  0.6886E-85  0.2135E-85
  -9.690  0.6886E-85  0.2204E-85
  -9.680  0.6886E-85  0.2272E-85
  -9.670  0.6886E-85  0.2341E-85
  -9.660  0.6886E-85  0.2410E-85
  -9.650  0.6886E-85  0.2479E-85
  -9.640  0.6886E-85  0.2548E-85
  -9.630  0.6886E-85  0.2617E-85
  -9.620  0.6886E-85  0.2686E-85
  -9.610  0.6886E-85  0.2755E-85
  -9.600  0.6886E-85  0.2823E-85
  -9.590  0.6886E-85  0.2892E-85
  -9.580  0.6886E-85  0.2961E-85
  -9.570  0.6886E-85  0.3030E-85
  -9.560  0.6886E-85  0.3099E-85
  -9.550  0.6886E-85  0.3168E-85
  -9.540  0.6886E-85  0.3237E-85
  -9.530  0.6886E-85  0.3305E-85
  -9.520  0.6886E-85  0.3374E-85
  -9.510  0.6886E-85  0.3443E-85
  -9.500  0.6886E-85  0.3512E-85
  -9.490  0.6886E-85  0.3581E-85
  -9.480  0.6886E-85  0.3650E-85
  -9.470  0.6886E-85  0.3719E-85
  -9.460  0.6886E-85  0.3787E-85
  -9.450  0.6886E-85  0.3856E-85
  -9.440  0.6886E-85  0.3925E-85
  -9.430  0.6886E-85  0.3994E-85
  -9.420  0.6886E-85  0.4063E-85
  -9.410  0.6886E-85  0.4132E-85
  -9.400  0.6886E-85  0.4201E-85
  -9.390  0.6886E-85  0.4270E-85
  -9.380  0.6886E-85  0.4338E-85
  -9.370  0.6886E-85  0.4407E-85
  -9.360  0.6886E-85  0.4476E-85
  -9.350  0.6886E-85  0.4545E-85
  -9.340  0.6886E-85  0.4614E-85
  -9.330  0.6886E-85  0.4683E-85
  -9.320  0.6886E-85  0.4752E-85
  -9.310  0.6886E-85  0.4820E-85
  -9.300  0.6886E-85  0.4889E-85
  -9.290  0.6886E-85  0.4958E-85
  -9.280  0.6886E-85  0.5027E-85
  -9.270  0.6886E-85  0.5096E-85
  -9.260  0.6886E-85  0.5165E-85
  -9.250  0.6886E-85  0.5234E-85
  -9.240  0.6886E-85  0.5302E-85
  -9.230  0.6886E-85  0.5371E-85
  -9.220  0.6886E-85  0.5440E-85
  -9.210  0.6886E-85  0.5509E-85
  -9.200  0.6886E-85  0.5578E-85
  -9.190  0.6886E-85  0.5647E-85
  -9.180  0.6886E-85  0.5716E-85
  -9.170  0.6886E-85  0.5785E-85
  -9.160  0.6886E-85  0.5853E-85
  -9.150  0.6886E-85  0.5922E-85
  -9.140  0.6886E-85  0.5991E-85
  -9.130  0.6886E-85  0.6060E-85
  -9.120  0.6886E-85  0.6129E-85
  -9.110  0.6886E-85  0.6198E-85
  -9.100  0.6886E-85  0.6267E-85
  -9.090  0.6886E-85  0.6335E-85
  -9.080  0.6886E-85  0.6404E-85
  -9.070  0.6886E-85  0.6473E-85
  -9.060  0.6886E-85  0.6542E-85
  -9.050  0.6886E-85  0.6611E-85
  -9.040  0.6886E-85  0.6680E-85
  -9.030  0.6886E-85  0.6749E-85
  -9.020  0.6886E-85  0.6817E-85
  -9.010  0.6886E-85  0.6886E-85
  -9.000  0.6886E-85  0.6955E-85
  -8.990  0.6886E-85  0.7024E-85
  -8.980  0.6886E-85  0.7093E-85
  -8.970  0.6886E-85  0.7162E-85
  -8.960  0.6886E-85  0.7231E-85
  -8.950  0.6886E-85  0.7300E-85
  -8.940  0.6886E-85  0.7368E-85
  -8.930  0.6886E-85  0.7437E-85
  -8.920  0.6886E-85  0.7506E-85
  -8.910  0.6886E-85  0.7575E-85
  -8.900  0.6886E-85  0.7644E-85
  -8.890  0.6886E-85  0.7713E-85
  -8.880  0.6886E-85  0.7782E-85
  -8.870  0.6886E-85  0.7850E-85
  -8.860  0.6886E-85  0.7919E-85
  -8.850  0.6886E-85  0.7988E-85
  -8.840  0.6886E-85  0.8057E-85
  -8.830  0.6886E-85  0.8126E-85
  -8.820  0.6886E-85  0.8195E-85
  -8.810  0.6886E-85  0.8264E-85
  -8.800  0.6886E-85  0.8332E-85
  -8.790  0.6886E-85  0.8401E-85
  -8.780  0.6886E-85  0.8470E-85
  -8.770  0.6886E-85  0.8539E-85
  -8.760  0.6886E-85  0.8608E-85
  -8.750  0.6886E-85  0.8677E-85
  -8.740  0.6886E-85  0.8746E-85
  -8.730  0.6886E-85  0.8815E-85
  -8.720  0.6886E-85  0.8883E-85
  -8.710  0.6886E-85  0.8952E-85
  -8.700  0.6886E-85  0.9021E-85
  -8.690  0.6886E-85  0.9090E-85
  -8.680  0.6886E-85  0.9159E-85
  -8.670  0.6886E-85  0.9228E-85
  -8.660  0.6886E-85  0.9297E-85
  -8.650  0.6886E-85  0.9365E-85
  -8.640  0.6886E-85  0.9434E-85
  -8.630  0.6886E-85  0.9503E-85
  -8.620  0.6886E-85  0.9572E-85
  -8.610  0.6886E-85  0.9641E-85
  -8.600  0.6886E-85  0.9710E-85
  -8.590  0.6886E-85  0.9779E-85
  -8.580  0.6886E-85  0.9847E-85
  -8.570  0.6886E-85  0.9916E-85
  -8.560  0.6886E-85  0.9985E-85
  -8.550  0.6886E-85  0.1005E-84
  -8.540  0.6886E-85  0.1012E-84
  -8.530  0.6886E-85  0.1019E-84
  -8.520  0.6886E-85  0.1026E-84
  -8.510  0.6886E-85  0.1033E-84
  -8.500  0.6886E-85  0.1040E-84
  -8.490  0.6886E-85  0.1047E-84
  -8.480  0.6886E-85  0.1054E-84
  -8.470  0.6886E-85  0.1060E-84
  -8.460  0.6886E-85  0.1067E-84
  -8.450  0.6886E-85  0.1074E-84
  -8.440  0.6886E-85  0.1081E-84
  -8.430  0.6886E-85  0.1088E-84
  -8.420  0.6886E-85  0.1095E-84
  -8.410  0.6886E-85  0.1102E-84
  -8.400  0.6886E-85  0.1109E-84
  -8.390  0.6886E-85  0.1116E-84
  -8.380  0.6886E-85  0.1122E-84
  -8.370  0.6886E-85  0.1129E-84
  -8.360  0.6886E-85  0.1136E-84
  -8.350  0.6886E-85  0.1143E-84
  -8.340  0.6886E-85  0.1150E-84
  -8.330  0.6886E-85  0.1157E-84
  -8.320  0.6886E-85  0.1164E-84
  -8.310  0.6886E-85  0.1171E-84
  -8.300  0.6886E-85  0.1178E-84
  -8.290  0.6886E-85  0.1184E-84
  -8.280  0.6886E-85  0.1191E-84
  -8.270  0.6886E-85  0.1198E-84
  -8.260  0.6886E-85  0.1205E-84
  -8.250  0.6886E-85  0.1212E-84
  -8.240  0.6886E-85  0.1219E-84
  -8.230  0.6886E-85  0.1226E-84
  -8.220  0.6886E-85  0.1233E-84
  -8.210  0.6886E-85  0.1240E-84
  -8.200  0.6886E-85  0.1246E-84
  -8.190  0.6886E-85  0.1253E-84
  -8.180  0.6886E-85  0.1260E-84
  -8.170  0.6886E-85  0.1267E-84
  -8.160  0.6886E-85  0.1274E-84
  -8.150  0.6886E-85  0.1281E-84
  -8.140  0.6886E-85  0.1288E-84
  -8.130  0.6886E-85  0.1295E-84
  -8.120  0.6886E-85  0.1302E-84
  -8.110  0.6886E-85  0.1308E-84
  -8.100  0.6886E-85  0.1315E-84
  -8.090  0.6886E-85  0.1322E-84
  -8.080  0.6886E-85  0.1329E-84
  -8.070  0.6886E-85  0.1336E-84
  -8.060  0.6886E-85  0.1343E-84
  -8.050  0.6886E-85  0.1350E-84
  -8.040  0.6886E-85  0.1357E-84
  -8.030  0.6886E-85  0.1363E-84
  -8.020  0.6886E-85  0.1370E-84
  -8.010  0.6886E-85  0.1377E-84
  -8.000  0.6886E-85  0.1384E-84
  -7.990  0.6886E-85  0.1391E-84
  -7.980  0.6886E-85  0.1398E-84
  -7.970  0.6886E-85  0.1405E-84
  -7.960  0.6886E-85  0.1412E-84
  -7.950  0.6886E-85  0.1419E-84
  -7.940  0.6886E-85  0.1425E-84
  -7.930  0.6886E-85  0.1432E-84
  -7.920  0.6886E-85  0.1439E-84
  -7.910  0.6886E-85  0.1446E-84
  -7.900  0.6886E-85  0.1453E-84
  -7.890  0.6886E-85  0.1460E-84
  -7.880  0.6886E-85  0.1467E-84
  -7.870  0.6886E-85  0.1474E-84
  -7.860  0.6886E-85  0.1481E-84
  -7.850  0.6886E-85  0.1487E-84
  -7.840  0.6886E-85  0.1494E-84
  -7.830  0.6886E-85  0.1501E-84
  -7.820  0.6886E-85  0.1508E-84
  -7.810  0.6886E-85  0.1515E-84
  -7.800  0.6886E-85  0.1522E-84
  -7.790  0.6886E-85  0.1529E-84
  -7.780  0.6886E-85  0.1536E-84
  -7.770  0.6886E-85  0.1543E-84
  -7.760  0.6886E-85  0.1549E-84
  -7.750  0.6886E-85  0.1556E-84
  -7.740  0.6886E-85  0.1563E-84
  -7.730  0.6886E-85  0.1570E-84
  -7.720  0.6886E-85  0.1577E-84
  -7.710  0.6886E-85  0.1584E-84
  -7.700  0.6886E-85  0.1591E-84
  -7.690  0.6886E-85  0.1598E-84
  -7.680  0.6886E-85  0.1605E-84
  -7.670  0.6886E-85  0.1611E-84
  -7.660  0.6886E-85  0.1618E-84
  -7.650  0.6886E-85  0.1625E-84
  -7.640  0.6886E-85  0.1632E-84
  -7.630  0.6886E-85  0.1639E-84
  -7.620  0.6886E-85  0.1646E-84
  -7.610  0.6886E-85  0.1653E-84
  -7.600  0.6886E-85  0.1660E-84
  -7.590  0.6886E-85  0.1666E-84
  -7.580  0.6886E-85  0.1673E-84
  -7.570  0.6886E-85  0.1680E-84
  -7.560  0.6886E-85  0.1687E-84
  -7.550  0.6886E-85  0.1694E-84
  -7.540  0.6886E-85  0.1701E-84
  -7.530  0.6886E-85  0.1708E-84
  -7.520  0.6886E-85  0.1715E-84
  -7.510  0.6886E-85  0.1722E-84
  -7.500  0.6886E-85  0.1728E-84
  -7.490  0.6886E-85  0.1735E-84
  -7.480  0.6886E-85  0.1742E-84
  -7.470  0.6886E-85  0.1749E-84
  -7.460  0.6886E-85  0.1756E-84
  -7.450  0.6886E-85  0.1763E-84
  -7.440  0.6886E-85  0.1770E-84
  -7.430  0.6886E-85  0.1777E-84
  -7.420  0.6886E-85  0.1784E-84
  -7.410  0.6886E-85  0.1790E-84
  -7.400  0.6886E-85  0.1797E-84
  -7.390  0.6886E-85  0.1804E-84
  -7.380  0.6886E-85  0.1811E-84
  -7.370  0.6886E-85  0.1818E-84
  -7.360  0.6886E-85  0.1825E-84
  -7.350  0.6886E-85  0.1832E-84
  -7.340  0.6886E-85  0.1839E-84
  -7.330  0.6886E-85  0.1846E-84
  -7.320  0.6886E-85  0.1852E-84
  -7.310  0.6886E-85  0.1859E-84
  -7.300  0.6886E-85  0.1866E-84
  -7.290  0.6886E-85  0.1873E-84
  -7.280  0.6886E-85  0.1880E-84
  -7.270  0.6886E-85  0.1887E-84
  -7.260  0.6886E-85  0.1894E-84
  -7.250  0.6886E-85  0.1901E-84
  -7.240  0.6886E-85  0.1908E-84
  -7.230  0.6886E-85  0.1914E-84
  -7.220  0.6886E-85  0.1921E-84
  -7.210  0.6886E-85  0.1928E-84
  -7.200  0.6886E-85  0.1935E-84
  -7.190  0.6886E-85  0.1942E-84
  -7.180  0.6886E-85  0.1949E-84
  -7.170  0.6886E-85  0.1956E-84
  -7.160  0.6886E-85  0.1963E-84
  -7.150  0.6886E-85  0.1969E-84
  -7.140  0.6886E-85  0.1976E-84
  -7.130  0.6886E-85  0.1983E-84
  -7.120  0.6886E-85  0.1990E-84
  -7.110  0.6886E-85  0.1997E-84
  -7.100  0.6886E-85  0.2004E-84
  -7.090  0.6886E-85  0.2011E-84
  -7.080  0.6886E-85  0.2018E-84
  -7.070  0.6886E-85  0.2025E-84
  -7.060  0.6886E-85  0.2031E-84
  -7.050  0.6886E-85  0.2038E-84
  -7.040  0.6886E-85  0.2045E-84
  -7.030  0.6886E-85  0.2052E-84
  -7.020  0.6886E-85  0.2059E-84
  -7.010  0.6886E-85  0.2066E-84
  -7.000  0.6886E-85  0.2073E-84
  -6.990  0.6886E-85  0.2080E-84
  -6.980  0.6886E-85  0.2087E-84
  -6.970  0.6886E-85  0.2093E-84
  -6.960  0.6886E-85  0.2100E-84
  -6.950  0.6886E-85  0.2107E-84
  -6.940  0.6886E-85  0.2114E-84
  -6.930  0.6886E-85  0.2121E-84
  -6.920  0.6886E-85  0.2128E-84
  -6.910  0.6886E-85  0.2135E-84
  -6.900  0.6886E-85  0.2142E-84
  -6.890  0.6886E-85  0.2149E-84
  -6.880  0.6886E-85  0.2155E-84
  -6.870  0.6886E-85  0.2162E-84
  -6.860  0.6886E-85  0.2169E-84
  -6.850  0.6886E-85  0.2176E-84
  -6.840  0.6886E-85  0.2183E-84
  -6.830  0.6886E-85  0.2190E-84
  -6.820  0.6886E-85  0.2197E-84
  -6.810  0.6886E-85  0.2204E-84
  -6.800  0.6886E-85  0.2211E-84
  -6.790  0.6886E-85  0.2217E-84
  -6.780  0.6886E-85  0.2224E-84
  -6.770  0.6886E-85  0.2231E-84
  -6.760  0.6886E-85  0.2238E-84
  -6.750  0.6886E-85  0.2245E-84
  -6.740  0.6886E-85  0.2252E-84
  -6.730  0.6886E-85  0.2259E-84
  -6.720  0.6886E-85  0.2266E-84
  -6.710  0.6886E-85  0.2272E-84
  -6.700  0.6886E-85  0.2279E-84
  -6.690  0.6886E-85  0.2286E-84
  -6.680  0.6886E-85  0.2293E-84
  -6.670  0.6886E-85  0.2300E-84
  -6.660  0.6886E-85  0.2307E-84
  -6.650  0.6886E-85  0.2314E-84
  -6.640  0.6886E-85  0.2321E-84
  -6.630  0.6886E-85  0.2328E-84
  -6.620  0.6886E-85  0.2334E-84
  -6.610  0.6886E-85  0.2341E-84
  -6.600  0.6886E-85  0.2348E-84
  -6.590  0.6886E-85  0.2355E-84
  -6.580  0.6886E-85  0.2362E-84
  -6.570  0.6886E-85  0.2369E-84
  -6.560  0.6886E-85  0.2376E-84
  -6.550  0.6886E-85  0.2383E-84
  -6.540  0.6886E-85  0.2390E-84
  -6.530  0.6886E-85  0.2396E-84
  -6.520  0.6886E-85  0.2403E-84
  -6.510  0.6886E-85  0.2410E-84
  -6.500  0.6886E-85  0.2417E-84
  -6.490  0.6886E-85  0.2424E-84
  -6.480  0.6886E-85  0.2431E-84
  -6.470  0.6886E-85  0.2438E-84
  -6.460  0.6886E-85  0.2445E-84
  -6.450  0.6886E-85  0.2452E-84
  -6.440  0.6886E-85  0.2458E-84
  -6.430  0.6886E-85  0.2465E-84
  -6.420  0.6886E-85  0.2472E-84
  -6.410  0.6886E-85  0.2479E-84
  -6.400  0.6886E-85  0.2486E-84
  -6.390  0.6886E-85  0.2493E-84
  -6.380  0.6886E-85  0.2500E-84
  -6.370  0.6886E-85  0.2507E-84
  -6.360  0.6886E-85  0.2514E-84
  -6.350  0.6886E-85  0.2520E-84
  -6.340  0.6886E-85  0.2527E-84
  -6.330  0.6886E-85  0.2534E-84
  -6.320  0.6886E-85  0.2541E-84
  -6.310  0.6886E-85  0.2548E-84
  -6.300  0.6886E-85  0.2555E-84
  -6.290  0.6886E-85  0.2562E-84
  -6.280  0.6886E-85  0.2569E-84
  -6.270  0.6886E-85  0.2575E-84
  -6.260  0.6886E-85  0.2582E-84
  -6.250  0.6886E-85  0.2589E-84
  -6.240  0.6886E-85  0.2596E-84
  -6.230  0.6886E-85  0.2603E-84
  -6.220  0.6886E-85  0.2610E-84
  -6.210  0.6886E-85  0.2617E-84
  -6.200  0.6886E-85  0.2624E-84
  -6.190  0.6886E-85  0.2631E-84
  -6.180  0.6886E-85  0.2637E-84
  -6.170  0.6886E-85  0.2644E-84
  -6.160  0.6886E-85  0.2651E-84
  -6.150  0.6886E-85  0.2658E-84
  -6.140  0.6886E-85  0.2665E-84
  -6.130  0.6886E-85  0.2672E-84
  -6.120  0.6886E-85  0.2679E-84
  -6.110  0.6886E-85  0.2686E-84
  -6.100  0.6886E-85  0.2693E-84
  -6.090  0.6886E-85  0.2699E-84
  -6.080  0.6886E-85  0.2706E-84
  -6.070  0.6886E-85  0.2713E-84
  -6.060  0.6886E-85  0.2720E-84
  -6.050  0.6886E-85  0.2727E-84
  -6.040  0.6886E-85  0.2734E-84
  -6.030  0.6886E-85  0.2741E-84
  -6.020  0.6886E-85  0.2748E-84
  -6.010  0.6886E-85  0.2755E-84
  -6.000  0.6886E-85  0.2761E-84
  -5.990  0.6886E-85  0.2768E-84
  -5.980  0.6886E-85  0.2775E-84
  -5.970  0.6886E-85  0.2782E-84
  -5.960  0.6886E-85  0.2789E-84
  -5.950  0.6886E-85  0.2796E-84
  -5.940  0.6886E-85  0.2803E-84
  -5.930  0.6886E-85  0.2810E-84
  -5.920  0.6886E-85  0.2817E-84
  -5.910  0.6886E-85  0.2823E-84
  -5.900  0.6886E-85  0.2830E-84
  -5.890  0.6886E-85  0.2837E-84
  -5.880  0.6886E-85  0.2844E-84
  -5.870  0.6886E-85  0.2851E-84
  -5.860  0.6886E-85  0.2858E-84
  -5.850  0.6886E-85  0.2865E-84
  -5.840  0.6886E-85  0.2872E-84
  -5.830  0.6886E-85  0.2878E-84
  -5.820  0.6886E-85  0.2885E-84
  -5.810  0.6886E-85  0.2892E-84
  -5.800  0.6886E-85  0.2899E-84
  -5.790  0.6886E-85  0.2906E-84
  -5.780  0.6886E-85  0.2913E-84
  -5.770  0.6886E-85  0.2920E-84
  -5.760  0.6886E-85  0.2927E-84
  -5.750  0.6886E-85  0.2934E-84
  -5.740  0.6886E-85  0.2940E-84
  -5.730  0.6886E-85  0.2947E-84
  -5.720  0.6886E-85  0.2954E-84
  -5.710  0.6886E-85  0.2961E-84
  -5.700  0.6886E-85  0.2968E-84
  -5.690  0.6886E-85  0.2975E-84
  -5.680  0.6886E-85  0.2982E-84
  -5.670  0.6886E-85  0.2989E-84
  -5.660  0.6886E-85  0.2996E-84
  -5.650  0.6886E-85  0.3002E-84
  -5.640  0.6886E-85  0.3009E-84
  -5.630  0.6886E-85  0.3016E-84
  -5.620  0.6886E-85  0.3023E-84
  -5.610  0.6886E-85  0.3030E-84
  -5.600  0.6886E-85  0.3037E-84
  -5.590  0.6886E-85  0.3044E-84
  -5.580  0.6886E-85  0.3051E-84
  -5.570  0.6886E-85  0.3058E-84
  -5.560  0.6886E-85  0.3064E-84
  -5.550  0.6886E-85  0.3071E-84
  -5.540  0.6886E-85  0.3078E-84
  -5.530  0.6886E-85  0.3085E-84
  -5.520  0.6886E-85  0.3092E-84
  -5.510  0.6886E-85  0.3099E-84
  -5.500  0.6886E-85  0.3106E-84
  -5.490  0.6886E-85  0.3113E-84
  -5.480  0.6886E-85  0.3120E-84
  -5.470  0.6886E-85  0.3126E-84
  -5.460  0.6886E-85  0.3133E-84
  -5.450  0.6886E-85  0.3140E-84
  -5.440  0.6886E-85  0.3147E-84
  -5.430  0.6886E-85  0.3154E-84
  -5.420  0.6886E-85  0.3161E-84
  -5.410  0.6886E-85  0.3168E-84
  -5.400  0.6886E-85  0.3175E-84
  -5.390  0.6886E-85  0.3181E-84
  -5.380  0.6886E-85  0.3188E-84
  -5.370  0.6886E-85  0.3195E-84
  -5.360  0.6886E-85  0.3202E-84
  -5.350  0.6886E-85  0.3209E-84
  -5.340  0.6886E-85  0.3216E-84
  -5.330  0.6886E-85  0.3223E-84
  -5.320  0.6886E-85  0.3230E-84
  -5.310  0.6886E-85  0.3237E-84
  -5.300  0.6886E-85  0.3243E-84
  -5.290  0.6886E-85  0.3250E-84
  -5.280  0.6886E-85  0.3257E-84
  -5.270  0.6886E-85  0.3264E-84
  -5.260  0.6886E-85  0.3271E-84
  -5.250  0.6886E-85  0.3278E-84
  -5.240  0.6886E-85  0.3285E-84
  -5.230  0.6886E-85  0.3292E-84
  -5.220  0.6886E-85  0.3299E-84
  -5.210  0.6886E-85  0.3305E-84
  -5.200  0.6886E-85  0.3312E-84
  -5.190  0.6886E-85  0.3319E-84
  -5.180  0.6886E-85  0.3326E-84
  -5.170  0.6886E-85  0.3333E-84
  -5.160  0.6886E-85  0.3340E-84
  -5.150  0.6886E-85  0.3347E-84
  -5.140  0.6886E-85  0.3354E-84
  -5.130  0.6888E-85  0.3361E-84
  -5.120  0.6898E-85  0.3367E-84
  -5.110  0.6975E-85  0.3374E-84
  -5.100  0.7570E-85  0.3382E-84
  -5.090  0.1206E-84  0.3394E-84
  -5.080  0.4565E-84  0.3440E-84
  -5.070  0.2941E-83  0.3734E-84
  -5.060  0.2112E-82  0.5846E-84
  -5.050  0.1527E-81  0.2111E-83
  -5.040  0.1095E-80  0.1306E-82
  -5.030  0.7770E-80  0.9076E-82
  -5.020  0.5455E-79  0.6363E-81
  -5.010  0.3789E-78  0.4426E-80
  -5.000  0.2604E-77  0.3047E-79
  -4.990  0.1770E-76  0.2075E-78
  -4.980  0.1191E-75  0.1398E-77
  -4.970  0.7925E-75  0.9323E-77
  -4.960  0.5218E-74  0.6150E-76
  -4.950  0.3398E-73  0.4013E-75
  -4.940  0.2190E-72  0.2591E-74
  -4.930  0.1396E-71  0.1655E-73
  -4.920  0.8806E-71  0.1046E-72
  -4.910  0.5495E-70  0.6541E-72
  -4.900  0.3393E-69  0.4047E-71
  -4.890  0.2072E-68  0.2477E-70
  -4.880  0.1252E-67  0.1500E-69
  -4.870  0.7486E-67  0.8985E-69
  -4.860  0.4427E-66  0.5326E-68
  -4.850  0.2591E-65  0.3123E-67
  -4.840  0.1500E-64  0.1812E-66
  -4.830  0.8591E-64  0.1040E-65
  -4.820  0.4868E-63  0.5908E-65
  -4.810  0.2729E-62  0.3320E-64
  -4.800  0.1514E-61  0.1846E-63
  -4.790  0.8307E-61  0.1015E-62
  -4.780  0.4510E-60  0.5525E-62
  -4.770  0.2422E-59  0.2975E-61
  -4.760  0.1287E-58  0.1585E-60
  -4.750  0.6768E-58  0.8353E-60
  -4.740  0.3520E-57  0.4356E-59
  -4.730  0.1812E-56  0.2247E-58
  -4.720  0.9224E-56  0.1147E-57
  -4.710  0.4646E-55  0.5793E-57
  -4.700  0.2316E-54  0.2895E-56
  -4.690  0.1142E-53  0.1431E-55
  -4.680  0.5569E-53  0.7001E-55
  -4.670  0.2688E-52  0.3388E-54
  -4.660  0.1283E-51  0.1622E-53
  -4.650  0.6063E-51  0.7686E-53
  -4.640  0.2834E-50  0.3602E-52
  -4.630  0.1310E-49  0.1671E-51
  -4.620  0.5995E-49  0.7666E-51
  -4.610  0.2714E-48  0.3480E-50
  -4.600  0.1215E-47  0.1563E-49
  -4.590  0.5384E-47  0.6948E-49
  -4.580  0.2360E-46  0.3055E-48
  -4.570  0.1024E-45  0.1329E-47
  -4.560  0.4392E-45  0.5721E-47
  -4.550  0.1865E-44  0.2437E-46
  -4.540  0.7831E-44  0.1027E-45
  -4.530  0.3254E-43  0.4281E-45
  -4.520  0.1338E-42  0.1766E-44
  -4.510  0.5442E-42  0.7208E-44
  -4.500  0.2190E-41  0.2911E-43
  -4.490  0.8720E-41  0.1163E-42
  -4.480  0.3435E-40  0.4598E-42
  -4.470  0.1339E-39  0.1799E-41
  -4.460  0.5163E-39  0.6962E-41
  -4.450  0.1970E-38  0.2666E-40
  -4.440  0.7435E-38  0.1010E-39
  -4.430  0.2777E-37  0.3787E-39
  -4.420  0.1026E-36  0.1405E-38
  -4.410  0.3751E-36  0.5155E-38
  -4.400  0.1357E-35  0.1872E-37
  -4.390  0.4854E-35  0.6727E-37
  -4.380  0.1719E-34  0.2391E-36
  -4.370  0.6021E-34  0.8412E-36
  -4.360  0.2087E-33  0.2928E-35
  -4.350  0.7155E-33  0.1008E-34
  -4.340  0.2428E-32  0.3436E-34
  -4.330  0.8148E-32  0.1158E-33
  -4.320  0.2706E-31  0.3865E-33
  -4.310  0.8892E-31  0.1276E-32
  -4.300  0.2891E-30  0.4167E-32
  -4.290  0.9299E-30  0.1347E-31
  -4.280  0.2959E-29  0.4306E-31
  -4.270  0.9318E-29  0.1362E-30
  -4.260  0.2903E-28  0.4265E-30
  -4.250  0.8948E-28  0.1321E-29
  -4.240  0.2729E-27  0.4050E-29
  -4.230  0.8234E-27  0.1228E-28
  -4.220  0.2458E-26  0.3687E-28
  -4.210  0.7262E-26  0.1095E-27
  -4.200  0.2122E-25  0.3217E-27
  -4.190  0.6137E-25  0.9354E-27
  -4.180  0.1756E-24  0.2691E-26
  -4.170  0.4970E-24  0.7662E-26
  -4.160  0.1392E-23  0.2158E-25
  -4.150  0.3858E-23  0.6016E-25
  -4.140  0.1058E-22  0.1660E-24
  -4.130  0.2870E-22  0.4529E-24
  -4.120  0.7704E-22  0.1223E-23
  -4.110  0.2046E-21  0.3269E-23
  -4.100  0.5377E-21  0.8647E-23
  -4.090  0.1398E-20  0.2263E-22
  -4.080  0.3597E-20  0.5860E-22
  -4.070  0.9157E-20  0.1502E-21
  -4.060  0.2306E-19  0.3808E-21
  -4.050  0.5748E-19  0.9556E-21
  -4.040  0.1417E-18  0.2373E-20
  -4.030  0.3458E-18  0.5831E-20
  -4.020  0.8349E-18  0.1418E-19
  -4.010  0.1994E-17  0.3412E-19
  -4.000  0.4714E-17  0.8127E-19
  -3.990  0.1103E-16  0.1915E-18
  -3.980  0.2552E-16  0.4467E-18
  -3.970  0.5843E-16  0.1031E-17
