# E (eV)   ldos(E)   pdos(E)    pdos(E)    pdos(E)   
  -3.634  0.622E-08  0.207E-08  0.207E-08  0.207E-08
  -3.624  0.101E-07  0.337E-08  0.337E-08  0.337E-08
  -3.614  0.163E-07  0.544E-08  0.544E-08  0.544E-08
  -3.604  0.260E-07  0.868E-08  0.868E-08  0.868E-08
  -3.594  0.412E-07  0.137E-07  0.137E-07  0.137E-07
  -3.584  0.645E-07  0.215E-07  0.215E-07  0.215E-07
  -3.574  0.100E-06  0.333E-07  0.333E-07  0.333E-07
  -3.564  0.154E-06  0.512E-07  0.512E-07  0.512E-07
  -3.554  0.234E-06  0.779E-07  0.779E-07  0.779E-07
  -3.544  0.352E-06  0.117E-06  0.117E-06  0.117E-06
  -3.534  0.525E-06  0.175E-06  0.175E-06  0.175E-06
  -3.524  0.776E-06  0.259E-06  0.259E-06  0.259E-06
  -3.514  0.114E-05  0.379E-06  0.379E-06  0.379E-06
  -3.504  0.165E-05  0.550E-06  0.550E-06  0.550E-06
  -3.494  0.237E-05  0.790E-06  0.790E-06  0.790E-06
  -3.484  0.338E-05  0.113E-05  0.113E-05  0.113E-05
  -3.474  0.476E-05  0.159E-05  0.159E-05  0.159E-05
  -3.464  0.666E-05  0.222E-05  0.222E-05  0.222E-05
  -3.454  0.923E-05  0.308E-05  0.308E-05  0.308E-05
  -3.444  0.127E-04  0.422E-05  0.422E-05  0.422E-05
  -3.434  0.172E-04  0.575E-05  0.575E-05  0.575E-05
  -3.424  0.233E-04  0.776E-05  0.776E-05  0.776E-05
  -3.414  0.311E-04  0.104E-04  0.104E-04  0.104E-04
  -3.404  0.412E-04  0.137E-04  0.137E-04  0.137E-04
  -3.394  0.542E-04  0.181E-04  0.181E-04  0.181E-04
  -3.384  0.707E-04  0.236E-04  0.236E-04  0.236E-04
  -3.374  0.913E-04  0.304E-04  0.304E-04  0.304E-04
  -3.364  0.117E-03  0.390E-04  0.390E-04  0.390E-04
  -3.354  0.149E-03  0.496E-04  0.496E-04  0.496E-04
  -3.344  0.188E-03  0.625E-04  0.625E-04  0.625E-04
  -3.334  0.235E-03  0.782E-04  0.782E-04  0.782E-04
  -3.324  0.291E-03  0.971E-04  0.971E-04  0.971E-04
  -3.314  0.359E-03  0.120E-03  0.120E-03  0.120E-03
  -3.304  0.438E-03  0.146E-03  0.146E-03  0.146E-03
  -3.294  0.532E-03  0.177E-03  0.177E-03  0.177E-03
  -3.284  0.640E-03  0.213E-03  0.213E-03  0.213E-03
  -3.274  0.766E-03  0.255E-03  0.255E-03  0.255E-03
  -3.264  0.909E-03  0.303E-03  0.303E-03  0.303E-03
  -3.254  0.107E-02  0.357E-03  0.357E-03  0.357E-03
  -3.244  0.126E-02  0.419E-03  0.419E-03  0.419E-03
  -3.234  0.146E-02  0.487E-03  0.487E-03  0.487E-03
  -3.224  0.169E-02  0.564E-03  0.564E-03  0.564E-03
  -3.214  0.194E-02  0.648E-03  0.648E-03  0.648E-03
  -3.204  0.222E-02  0.740E-03  0.740E-03  0.740E-03
  -3.194  0.252E-02  0.841E-03  0.841E-03  0.841E-03
  -3.184  0.285E-02  0.950E-03  0.950E-03  0.950E-03
  -3.174  0.320E-02  0.107E-02  0.107E-02  0.107E-02
  -3.164  0.358E-02  0.119E-02  0.119E-02  0.119E-02
  -3.154  0.398E-02  0.133E-02  0.133E-02  0.133E-02
  -3.144  0.440E-02  0.147E-02  0.147E-02  0.147E-02
  -3.134  0.485E-02  0.162E-02  0.162E-02  0.162E-02
  -3.124  0.532E-02  0.177E-02  0.177E-02  0.177E-02
  -3.114  0.581E-02  0.194E-02  0.194E-02  0.194E-02
  -3.104  0.632E-02  0.211E-02  0.211E-02  0.211E-02
  -3.094  0.685E-02  0.228E-02  0.228E-02  0.228E-02
  -3.084  0.739E-02  0.246E-02  0.246E-02  0.246E-02
  -3.074  0.795E-02  0.265E-02  0.265E-02  0.265E-02
  -3.064  0.852E-02  0.284E-02  0.284E-02  0.284E-02
  -3.054  0.911E-02  0.304E-02  0.304E-02  0.304E-02
  -3.044  0.971E-02  0.324E-02  0.324E-02  0.324E-02
  -3.034  0.103E-01  0.344E-02  0.344E-02  0.344E-02
  -3.024  0.109E-01  0.365E-02  0.365E-02  0.365E-02
  -3.014  0.116E-01  0.385E-02  0.385E-02  0.385E-02
  -3.004  0.122E-01  0.407E-02  0.407E-02  0.407E-02
  -2.994  0.128E-01  0.428E-02  0.428E-02  0.428E-02
  -2.984  0.135E-01  0.449E-02  0.449E-02  0.449E-02
  -2.974  0.141E-01  0.471E-02  0.471E-02  0.471E-02
  -2.964  0.148E-01  0.493E-02  0.493E-02  0.493E-02
  -2.954  0.154E-01  0.515E-02  0.515E-02  0.515E-02
  -2.944  0.161E-01  0.536E-02  0.536E-02  0.536E-02
  -2.934  0.168E-01  0.558E-02  0.558E-02  0.558E-02
  -2.924  0.174E-01  0.581E-02  0.581E-02  0.581E-02
  -2.914  0.181E-01  0.603E-02  0.603E-02  0.603E-02
  -2.904  0.187E-01  0.625E-02  0.625E-02  0.625E-02
  -2.894  0.194E-01  0.647E-02  0.647E-02  0.647E-02
  -2.884  0.201E-01  0.669E-02  0.669E-02  0.669E-02
  -2.874  0.207E-01  0.691E-02  0.691E-02  0.691E-02
  -2.864  0.214E-01  0.713E-02  0.713E-02  0.713E-02
  -2.854  0.221E-01  0.736E-02  0.736E-02  0.736E-02
  -2.844  0.227E-01  0.758E-02  0.758E-02  0.758E-02
  -2.834  0.234E-01  0.780E-02  0.780E-02  0.780E-02
  -2.824  0.241E-01  0.802E-02  0.802E-02  0.802E-02
  -2.814  0.247E-01  0.824E-02  0.824E-02  0.824E-02
  -2.804  0.254E-01  0.846E-02  0.846E-02  0.846E-02
  -2.794  0.260E-01  0.867E-02  0.867E-02  0.867E-02
  -2.784  0.267E-01  0.889E-02  0.889E-02  0.889E-02
  -2.774  0.273E-01  0.911E-02  0.911E-02  0.911E-02
  -2.764  0.280E-01  0.932E-02  0.932E-02  0.932E-02
  -2.754  0.286E-01  0.954E-02  0.954E-02  0.954E-02
  -2.744  0.293E-01  0.976E-02  0.976E-02  0.976E-02
  -2.734  0.299E-01  0.997E-02  0.997E-02  0.997E-02
  -2.724  0.306E-01  0.102E-01  0.102E-01  0.102E-01
  -2.714  0.312E-01  0.104E-01  0.104E-01  0.104E-01
  -2.704  0.318E-01  0.106E-01  0.106E-01  0.106E-01
  -2.694  0.325E-01  0.108E-01  0.108E-01  0.108E-01
  -2.684  0.331E-01  0.110E-01  0.110E-01  0.110E-01
  -2.674  0.338E-01  0.113E-01  0.113E-01  0.113E-01
  -2.664  0.344E-01  0.115E-01  0.115E-01  0.115E-01
  -2.654  0.350E-01  0.117E-01  0.117E-01  0.117E-01
  -2.644  0.356E-01  0.119E-01  0.119E-01  0.119E-01
  -2.634  0.362E-01  0.121E-01  0.121E-01  0.121E-01
  -2.624  0.369E-01  0.123E-01  0.123E-01  0.123E-01
  -2.614  0.375E-01  0.125E-01  0.125E-01  0.125E-01
  -2.604  0.381E-01  0.127E-01  0.127E-01  0.127E-01
  -2.594  0.387E-01  0.129E-01  0.129E-01  0.129E-01
  -2.584  0.393E-01  0.131E-01  0.131E-01  0.131E-01
  -2.574  0.399E-01  0.133E-01  0.133E-01  0.133E-01
  -2.564  0.405E-01  0.135E-01  0.135E-01  0.135E-01
  -2.554  0.411E-01  0.137E-01  0.137E-01  0.137E-01
  -2.544  0.417E-01  0.139E-01  0.139E-01  0.139E-01
  -2.534  0.423E-01  0.141E-01  0.141E-01  0.141E-01
  -2.524  0.429E-01  0.143E-01  0.143E-01  0.143E-01
  -2.514  0.435E-01  0.145E-01  0.145E-01  0.145E-01
  -2.504  0.441E-01  0.147E-01  0.147E-01  0.147E-01
  -2.494  0.447E-01  0.149E-01  0.149E-01  0.149E-01
  -2.484  0.453E-01  0.151E-01  0.151E-01  0.151E-01
  -2.474  0.459E-01  0.153E-01  0.153E-01  0.153E-01
  -2.464  0.465E-01  0.155E-01  0.155E-01  0.155E-01
  -2.454  0.471E-01  0.157E-01  0.157E-01  0.157E-01
  -2.444  0.476E-01  0.159E-01  0.159E-01  0.159E-01
  -2.434  0.482E-01  0.161E-01  0.161E-01  0.161E-01
  -2.424  0.487E-01  0.162E-01  0.162E-01  0.162E-01
  -2.414  0.492E-01  0.164E-01  0.164E-01  0.164E-01
  -2.404  0.498E-01  0.166E-01  0.166E-01  0.166E-01
  -2.394  0.503E-01  0.168E-01  0.168E-01  0.168E-01
  -2.384  0.509E-01  0.170E-01  0.170E-01  0.170E-01
  -2.374  0.514E-01  0.171E-01  0.171E-01  0.171E-01
  -2.364  0.520E-01  0.173E-01  0.173E-01  0.173E-01
  -2.354  0.526E-01  0.175E-01  0.175E-01  0.175E-01
  -2.344  0.531E-01  0.177E-01  0.177E-01  0.177E-01
  -2.334  0.537E-01  0.179E-01  0.179E-01  0.179E-01
  -2.324  0.543E-01  0.181E-01  0.181E-01  0.181E-01
  -2.314  0.549E-01  0.183E-01  0.183E-01  0.183E-01
  -2.304  0.555E-01  0.185E-01  0.185E-01  0.185E-01
  -2.294  0.561E-01  0.187E-01  0.187E-01  0.187E-01
  -2.284  0.566E-01  0.189E-01  0.189E-01  0.189E-01
  -2.274  0.572E-01  0.191E-01  0.191E-01  0.191E-01
  -2.264  0.577E-01  0.192E-01  0.192E-01  0.192E-01
  -2.254  0.582E-01  0.194E-01  0.194E-01  0.194E-01
  -2.244  0.587E-01  0.196E-01  0.196E-01  0.196E-01
  -2.234  0.592E-01  0.197E-01  0.197E-01  0.197E-01
  -2.224  0.596E-01  0.199E-01  0.199E-01  0.199E-01
  -2.214  0.601E-01  0.200E-01  0.200E-01  0.200E-01
  -2.204  0.605E-01  0.202E-01  0.202E-01  0.202E-01
  -2.194  0.610E-01  0.203E-01  0.203E-01  0.203E-01
  -2.184  0.615E-01  0.205E-01  0.205E-01  0.205E-01
  -2.174  0.619E-01  0.206E-01  0.206E-01  0.206E-01
  -2.164  0.624E-01  0.208E-01  0.208E-01  0.208E-01
  -2.154  0.629E-01  0.210E-01  0.210E-01  0.210E-01
  -2.144  0.635E-01  0.212E-01  0.212E-01  0.212E-01
  -2.134  0.641E-01  0.214E-01  0.214E-01  0.214E-01
  -2.124  0.646E-01  0.215E-01  0.215E-01  0.215E-01
  -2.114  0.652E-01  0.217E-01  0.217E-01  0.217E-01
  -2.104  0.658E-01  0.219E-01  0.219E-01  0.219E-01
  -2.094  0.664E-01  0.221E-01  0.221E-01  0.221E-01
  -2.084  0.670E-01  0.223E-01  0.223E-01  0.223E-01
  -2.074  0.676E-01  0.225E-01  0.225E-01  0.225E-01
  -2.064  0.681E-01  0.227E-01  0.227E-01  0.227E-01
  -2.054  0.686E-01  0.229E-01  0.229E-01  0.229E-01
  -2.044  0.691E-01  0.230E-01  0.230E-01  0.230E-01
  -2.034  0.696E-01  0.232E-01  0.232E-01  0.232E-01
  -2.024  0.700E-01  0.233E-01  0.233E-01  0.233E-01
  -2.014  0.704E-01  0.235E-01  0.235E-01  0.235E-01
  -2.004  0.708E-01  0.236E-01  0.236E-01  0.236E-01
  -1.994  0.711E-01  0.237E-01  0.237E-01  0.237E-01
  -1.984  0.715E-01  0.238E-01  0.238E-01  0.238E-01
  -1.974  0.718E-01  0.239E-01  0.239E-01  0.239E-01
  -1.964  0.722E-01  0.241E-01  0.241E-01  0.241E-01
  -1.954  0.726E-01  0.242E-01  0.242E-01  0.242E-01
  -1.944  0.729E-01  0.243E-01  0.243E-01  0.243E-01
  -1.934  0.734E-01  0.245E-01  0.245E-01  0.245E-01
  -1.924  0.738E-01  0.246E-01  0.246E-01  0.246E-01
  -1.914  0.743E-01  0.248E-01  0.248E-01  0.248E-01
  -1.904  0.749E-01  0.250E-01  0.250E-01  0.250E-01
  -1.894  0.754E-01  0.251E-01  0.251E-01  0.251E-01
  -1.884  0.760E-01  0.253E-01  0.253E-01  0.253E-01
  -1.874  0.766E-01  0.255E-01  0.255E-01  0.255E-01
  -1.864  0.772E-01  0.257E-01  0.257E-01  0.257E-01
  -1.854  0.779E-01  0.260E-01  0.260E-01  0.260E-01
  -1.844  0.785E-01  0.262E-01  0.262E-01  0.262E-01
  -1.834  0.791E-01  0.264E-01  0.264E-01  0.264E-01
  -1.824  0.796E-01  0.265E-01  0.265E-01  0.265E-01
  -1.814  0.802E-01  0.267E-01  0.267E-01  0.267E-01
  -1.804  0.807E-01  0.269E-01  0.269E-01  0.269E-01
  -1.794  0.811E-01  0.270E-01  0.270E-01  0.270E-01
  -1.784  0.815E-01  0.272E-01  0.272E-01  0.272E-01
  -1.774  0.818E-01  0.273E-01  0.273E-01  0.273E-01
  -1.764  0.821E-01  0.274E-01  0.274E-01  0.274E-01
  -1.754  0.824E-01  0.275E-01  0.275E-01  0.275E-01
  -1.744  0.826E-01  0.275E-01  0.275E-01  0.275E-01
  -1.734  0.828E-01  0.276E-01  0.276E-01  0.276E-01
  -1.724  0.830E-01  0.277E-01  0.277E-01  0.277E-01
  -1.714  0.833E-01  0.278E-01  0.278E-01  0.278E-01
  -1.704  0.835E-01  0.278E-01  0.278E-01  0.278E-01
  -1.694  0.838E-01  0.279E-01  0.279E-01  0.279E-01
  -1.684  0.841E-01  0.280E-01  0.280E-01  0.280E-01
  -1.674  0.845E-01  0.282E-01  0.282E-01  0.282E-01
  -1.664  0.849E-01  0.283E-01  0.283E-01  0.283E-01
  -1.654  0.854E-01  0.285E-01  0.285E-01  0.285E-01
  -1.644  0.859E-01  0.286E-01  0.286E-01  0.286E-01
  -1.634  0.865E-01  0.288E-01  0.288E-01  0.288E-01
  -1.624  0.872E-01  0.291E-01  0.291E-01  0.291E-01
  -1.614  0.879E-01  0.293E-01  0.293E-01  0.293E-01
  -1.604  0.885E-01  0.295E-01  0.295E-01  0.295E-01
  -1.594  0.892E-01  0.297E-01  0.297E-01  0.297E-01
  -1.584  0.899E-01  0.300E-01  0.300E-01  0.300E-01
  -1.574  0.906E-01  0.302E-01  0.302E-01  0.302E-01
  -1.564  0.912E-01  0.304E-01  0.304E-01  0.304E-01
  -1.554  0.917E-01  0.306E-01  0.306E-01  0.306E-01
  -1.544  0.922E-01  0.307E-01  0.307E-01  0.307E-01
  -1.534  0.926E-01  0.309E-01  0.309E-01  0.309E-01
  -1.524  0.930E-01  0.310E-01  0.310E-01  0.310E-01
  -1.514  0.933E-01  0.311E-01  0.311E-01  0.311E-01
  -1.504  0.935E-01  0.312E-01  0.312E-01  0.312E-01
  -1.494  0.936E-01  0.312E-01  0.312E-01  0.312E-01
  -1.484  0.937E-01  0.312E-01  0.312E-01  0.312E-01
  -1.474  0.938E-01  0.313E-01  0.313E-01  0.313E-01
  -1.464  0.939E-01  0.313E-01  0.313E-01  0.313E-01
  -1.454  0.940E-01  0.313E-01  0.313E-01  0.313E-01
  -1.444  0.941E-01  0.314E-01  0.314E-01  0.314E-01
  -1.434  0.942E-01  0.314E-01  0.314E-01  0.314E-01
  -1.424  0.944E-01  0.315E-01  0.315E-01  0.315E-01
  -1.414  0.947E-01  0.316E-01  0.316E-01  0.316E-01
  -1.404  0.950E-01  0.317E-01  0.317E-01  0.317E-01
  -1.394  0.953E-01  0.318E-01  0.318E-01  0.318E-01
  -1.384  0.958E-01  0.319E-01  0.319E-01  0.319E-01
  -1.374  0.963E-01  0.321E-01  0.321E-01  0.321E-01
  -1.364  0.969E-01  0.323E-01  0.323E-01  0.323E-01
  -1.354  0.975E-01  0.325E-01  0.325E-01  0.325E-01
  -1.344  0.982E-01  0.327E-01  0.327E-01  0.327E-01
  -1.334  0.989E-01  0.330E-01  0.330E-01  0.330E-01
  -1.324  0.996E-01  0.332E-01  0.332E-01  0.332E-01
  -1.314  0.100E+00  0.334E-01  0.334E-01  0.334E-01
  -1.304  0.101E+00  0.337E-01  0.337E-01  0.337E-01
  -1.294  0.102E+00  0.339E-01  0.339E-01  0.339E-01
  -1.284  0.102E+00  0.341E-01  0.341E-01  0.341E-01
  -1.274  0.103E+00  0.343E-01  0.343E-01  0.343E-01
  -1.264  0.103E+00  0.345E-01  0.345E-01  0.345E-01
  -1.254  0.104E+00  0.346E-01  0.346E-01  0.346E-01
  -1.244  0.104E+00  0.348E-01  0.348E-01  0.348E-01
  -1.234  0.105E+00  0.349E-01  0.349E-01  0.349E-01
  -1.224  0.105E+00  0.349E-01  0.349E-01  0.349E-01
  -1.214  0.105E+00  0.350E-01  0.350E-01  0.350E-01
  -1.204  0.105E+00  0.350E-01  0.350E-01  0.350E-01
  -1.194  0.105E+00  0.350E-01  0.350E-01  0.350E-01
  -1.184  0.105E+00  0.350E-01  0.350E-01  0.350E-01
  -1.174  0.105E+00  0.350E-01  0.350E-01  0.350E-01
  -1.164  0.105E+00  0.350E-01  0.350E-01  0.350E-01
  -1.154  0.105E+00  0.350E-01  0.350E-01  0.350E-01
  -1.144  0.105E+00  0.350E-01  0.350E-01  0.350E-01
  -1.134  0.105E+00  0.350E-01  0.350E-01  0.350E-01
  -1.124  0.105E+00  0.350E-01  0.350E-01  0.350E-01
  -1.114  0.105E+00  0.351E-01  0.351E-01  0.351E-01
  -1.104  0.105E+00  0.351E-01  0.351E-01  0.351E-01
  -1.094  0.106E+00  0.352E-01  0.352E-01  0.352E-01
  -1.084  0.106E+00  0.354E-01  0.354E-01  0.354E-01
  -1.074  0.107E+00  0.355E-01  0.355E-01  0.355E-01
  -1.064  0.107E+00  0.357E-01  0.357E-01  0.357E-01
  -1.054  0.108E+00  0.360E-01  0.360E-01  0.360E-01
  -1.044  0.109E+00  0.362E-01  0.362E-01  0.362E-01
  -1.034  0.109E+00  0.365E-01  0.365E-01  0.365E-01
  -1.024  0.110E+00  0.367E-01  0.367E-01  0.367E-01
  -1.014  0.111E+00  0.370E-01  0.370E-01  0.370E-01
  -1.004  0.112E+00  0.373E-01  0.373E-01  0.373E-01
  -0.994  0.113E+00  0.376E-01  0.376E-01  0.376E-01
  -0.984  0.113E+00  0.378E-01  0.378E-01  0.378E-01
  -0.974  0.114E+00  0.380E-01  0.380E-01  0.380E-01
  -0.964  0.115E+00  0.382E-01  0.382E-01  0.382E-01
  -0.954  0.115E+00  0.384E-01  0.384E-01  0.384E-01
  -0.944  0.116E+00  0.386E-01  0.386E-01  0.386E-01
  -0.934  0.116E+00  0.387E-01  0.387E-01  0.387E-01
  -0.924  0.116E+00  0.388E-01  0.388E-01  0.388E-01
  -0.914  0.116E+00  0.388E-01  0.388E-01  0.388E-01
  -0.904  0.116E+00  0.388E-01  0.388E-01  0.388E-01
  -0.894  0.116E+00  0.388E-01  0.388E-01  0.388E-01
  -0.884  0.116E+00  0.388E-01  0.388E-01  0.388E-01
  -0.874  0.116E+00  0.387E-01  0.387E-01  0.387E-01
  -0.864  0.116E+00  0.387E-01  0.387E-01  0.387E-01
  -0.854  0.116E+00  0.386E-01  0.386E-01  0.386E-01
  -0.844  0.116E+00  0.385E-01  0.385E-01  0.385E-01
  -0.834  0.115E+00  0.384E-01  0.384E-01  0.384E-01
  -0.824  0.115E+00  0.384E-01  0.384E-01  0.384E-01
  -0.814  0.115E+00  0.384E-01  0.384E-01  0.384E-01
  -0.804  0.115E+00  0.384E-01  0.384E-01  0.384E-01
  -0.794  0.115E+00  0.384E-01  0.384E-01  0.384E-01
  -0.784  0.115E+00  0.385E-01  0.385E-01  0.385E-01
  -0.774  0.116E+00  0.386E-01  0.386E-01  0.386E-01
  -0.764  0.116E+00  0.387E-01  0.387E-01  0.387E-01
  -0.754  0.117E+00  0.389E-01  0.389E-01  0.389E-01
  -0.744  0.117E+00  0.391E-01  0.391E-01  0.391E-01
  -0.734  0.118E+00  0.394E-01  0.394E-01  0.394E-01
  -0.724  0.119E+00  0.396E-01  0.396E-01  0.396E-01
  -0.714  0.120E+00  0.399E-01  0.399E-01  0.399E-01
  -0.704  0.121E+00  0.403E-01  0.403E-01  0.403E-01
  -0.694  0.122E+00  0.406E-01  0.406E-01  0.406E-01
  -0.684  0.123E+00  0.409E-01  0.409E-01  0.409E-01
  -0.674  0.124E+00  0.412E-01  0.412E-01  0.412E-01
  -0.664  0.124E+00  0.414E-01  0.414E-01  0.414E-01
  -0.654  0.125E+00  0.417E-01  0.417E-01  0.417E-01
  -0.644  0.126E+00  0.419E-01  0.419E-01  0.419E-01
  -0.634  0.126E+00  0.421E-01  0.421E-01  0.421E-01
  -0.624  0.127E+00  0.422E-01  0.422E-01  0.422E-01
  -0.614  0.127E+00  0.423E-01  0.423E-01  0.423E-01
  -0.604  0.127E+00  0.424E-01  0.424E-01  0.424E-01
  -0.594  0.127E+00  0.424E-01  0.424E-01  0.424E-01
  -0.584  0.127E+00  0.424E-01  0.424E-01  0.424E-01
  -0.574  0.127E+00  0.424E-01  0.424E-01  0.424E-01
  -0.564  0.127E+00  0.423E-01  0.423E-01  0.423E-01
  -0.554  0.127E+00  0.423E-01  0.423E-01  0.423E-01
  -0.544  0.127E+00  0.422E-01  0.422E-01  0.422E-01
  -0.534  0.126E+00  0.421E-01  0.421E-01  0.421E-01
  -0.524  0.126E+00  0.421E-01  0.421E-01  0.421E-01
  -0.514  0.126E+00  0.420E-01  0.420E-01  0.420E-01
  -0.504  0.126E+00  0.419E-01  0.419E-01  0.419E-01
  -0.494  0.126E+00  0.419E-01  0.419E-01  0.419E-01
  -0.484  0.126E+00  0.419E-01  0.419E-01  0.419E-01
  -0.474  0.126E+00  0.419E-01  0.419E-01  0.419E-01
  -0.464  0.126E+00  0.419E-01  0.419E-01  0.419E-01
  -0.454  0.126E+00  0.419E-01  0.419E-01  0.419E-01
  -0.444  0.126E+00  0.420E-01  0.420E-01  0.420E-01
  -0.434  0.126E+00  0.420E-01  0.420E-01  0.420E-01
  -0.424  0.126E+00  0.422E-01  0.422E-01  0.422E-01
  -0.414  0.127E+00  0.423E-01  0.423E-01  0.423E-01
  -0.404  0.127E+00  0.424E-01  0.424E-01  0.424E-01
  -0.394  0.128E+00  0.426E-01  0.426E-01  0.426E-01
  -0.384  0.129E+00  0.428E-01  0.428E-01  0.428E-01
  -0.374  0.129E+00  0.431E-01  0.431E-01  0.431E-01
  -0.364  0.130E+00  0.433E-01  0.433E-01  0.433E-01
  -0.354  0.131E+00  0.436E-01  0.436E-01  0.436E-01
  -0.344  0.132E+00  0.439E-01  0.439E-01  0.439E-01
  -0.334  0.133E+00  0.442E-01  0.442E-01  0.442E-01
  -0.324  0.134E+00  0.446E-01  0.446E-01  0.446E-01
  -0.314  0.135E+00  0.449E-01  0.449E-01  0.449E-01
  -0.304  0.135E+00  0.452E-01  0.452E-01  0.452E-01
  -0.294  0.136E+00  0.454E-01  0.454E-01  0.454E-01
  -0.284  0.137E+00  0.457E-01  0.457E-01  0.457E-01
  -0.274  0.138E+00  0.459E-01  0.459E-01  0.459E-01
  -0.264  0.138E+00  0.461E-01  0.461E-01  0.461E-01
  -0.254  0.139E+00  0.462E-01  0.462E-01  0.462E-01
  -0.244  0.139E+00  0.463E-01  0.463E-01  0.463E-01
  -0.234  0.139E+00  0.463E-01  0.463E-01  0.463E-01
  -0.224  0.139E+00  0.463E-01  0.463E-01  0.463E-01
  -0.214  0.139E+00  0.463E-01  0.463E-01  0.463E-01
  -0.204  0.138E+00  0.462E-01  0.462E-01  0.462E-01
  -0.194  0.138E+00  0.460E-01  0.460E-01  0.460E-01
  -0.184  0.138E+00  0.459E-01  0.459E-01  0.459E-01
  -0.174  0.137E+00  0.457E-01  0.457E-01  0.457E-01
  -0.164  0.137E+00  0.455E-01  0.455E-01  0.455E-01
  -0.154  0.136E+00  0.454E-01  0.454E-01  0.454E-01
  -0.144  0.136E+00  0.452E-01  0.452E-01  0.452E-01
  -0.134  0.135E+00  0.450E-01  0.450E-01  0.450E-01
  -0.124  0.135E+00  0.449E-01  0.449E-01  0.449E-01
  -0.114  0.135E+00  0.448E-01  0.448E-01  0.448E-01
  -0.104  0.134E+00  0.448E-01  0.448E-01  0.448E-01
  -0.094  0.134E+00  0.448E-01  0.448E-01  0.448E-01
  -0.084  0.135E+00  0.449E-01  0.449E-01  0.449E-01
  -0.074  0.135E+00  0.449E-01  0.449E-01  0.449E-01
  -0.064  0.135E+00  0.451E-01  0.451E-01  0.451E-01
  -0.054  0.136E+00  0.453E-01  0.453E-01  0.453E-01
  -0.044  0.136E+00  0.455E-01  0.455E-01  0.455E-01
  -0.034  0.137E+00  0.457E-01  0.457E-01  0.457E-01
  -0.024  0.138E+00  0.460E-01  0.460E-01  0.460E-01
  -0.014  0.139E+00  0.463E-01  0.463E-01  0.463E-01
  -0.004  0.140E+00  0.467E-01  0.467E-01  0.467E-01
   0.006  0.141E+00  0.470E-01  0.470E-01  0.470E-01
   0.016  0.142E+00  0.474E-01  0.474E-01  0.474E-01
   0.026  0.143E+00  0.477E-01  0.477E-01  0.477E-01
   0.036  0.144E+00  0.480E-01  0.480E-01  0.480E-01
   0.046  0.145E+00  0.483E-01  0.483E-01  0.483E-01
   0.056  0.146E+00  0.486E-01  0.486E-01  0.486E-01
   0.066  0.147E+00  0.489E-01  0.489E-01  0.489E-01
   0.076  0.147E+00  0.491E-01  0.491E-01  0.491E-01
   0.086  0.148E+00  0.493E-01  0.493E-01  0.493E-01
   0.096  0.148E+00  0.495E-01  0.495E-01  0.495E-01
   0.106  0.149E+00  0.496E-01  0.496E-01  0.496E-01
   0.116  0.149E+00  0.497E-01  0.497E-01  0.497E-01
